            V          S(V)          A(V)          I(V)          T(V)
          441
       4500.0           0.0          0.00      0.000000         0.000
       4490.0          57.5          0.01      0.000183         0.013
       4480.0         114.9          0.02      0.000367         0.026
       4470.0         172.5          0.05      0.000552         0.038
       4460.0         230.0          0.08      0.000737         0.051
       4450.0         287.6          0.13      0.000924         0.064
       4440.0         345.1          0.19      0.001112         0.077
       4430.0         402.8          0.26      0.001300         0.090
       4420.0         460.4          0.34      0.001489         0.103
       4410.0         518.0          0.43      0.001680         0.116
       4400.0         575.7          0.53      0.001871         0.129
       4390.0         633.4          0.65      0.002063         0.143
       4380.0         691.2          0.77      0.002257         0.156
       4370.0         748.9          0.91      0.002451         0.169
       4360.0         806.7          1.06      0.002646         0.182
       4350.0         864.5          1.21      0.002842         0.195
       4340.0         922.3          1.38      0.003039         0.209
       4330.0         980.2          1.57      0.003237         0.222
       4320.0        1038.0          1.76      0.003436         0.235
       4310.0        1095.9          1.96      0.003636         0.249
       4300.0        1153.8          2.18      0.003837         0.262
       4290.0        1211.8          2.41      0.004039         0.276
       4280.0        1269.7          2.65      0.004242         0.289
       4270.0        1327.7          2.90      0.004446         0.303
       4260.0        1385.6          3.16      0.004652         0.316
       4250.0        1443.7          3.44      0.004858         0.330
       4240.0        1501.7          3.73      0.005065         0.344
       4230.0        1559.8          4.03      0.005273         0.357
       4220.0        1617.8          4.34      0.005483         0.371
       4210.0        1676.0          4.67      0.005693         0.385
       4200.0        1734.1          5.00      0.005905         0.399
       4190.0        1792.2          5.35      0.006117         0.413
       4180.0        1850.4          5.71      0.006331         0.427
       4170.0        1908.6          6.09      0.006546         0.441
       4160.0        1966.8          6.48      0.006762         0.455
       4150.0        2025.1          6.88      0.006979         0.469
       4140.0        2083.3          7.29      0.007197         0.483
       4130.0        2141.6          7.71      0.007416         0.497
       4120.0        2199.8          8.15      0.007637         0.511
       4110.0        2258.1          8.61      0.007858         0.525
       4100.0        2316.5          9.07      0.008081         0.539
       4090.0        2374.8          9.55      0.008305         0.553
       4080.0        2433.2         10.04      0.008530         0.568
       4070.0        2491.6         10.54      0.008756         0.582
       4060.0        2550.1         11.06      0.008984         0.596
       4050.0        2608.5         11.59      0.009213         0.611
       4040.0        2667.0         12.14      0.009443         0.625
       4030.0        2725.5         12.70      0.009674         0.640
       4020.0        2784.0         13.27      0.009906         0.654
       4010.0        2842.5         13.86      0.010140         0.669
       4000.0        2901.0         14.46      0.010375         0.684
       3990.0        2959.8         15.07      0.010612         0.698
       3980.0        3018.3         15.70      0.010849         0.713
       3970.0        3076.9         16.34      0.011087         0.728
       3960.0        3135.5         17.00      0.011327         0.742
       3950.0        3194.1         17.67      0.011568         0.757
       3940.0        3252.7         18.36      0.011811         0.772
       3930.0        3311.4         19.06      0.012055         0.787
       3920.0        3370.1         19.77      0.012300         0.802
       3910.0        3428.9         20.50      0.012546         0.817
       3900.0        3487.6         21.25      0.012794         0.832
       3890.0        3546.3         22.00      0.013043         0.847
       3880.0        3605.0         22.78      0.013294         0.862
       3870.0        3663.8         23.57      0.013545         0.877
       3860.0        3722.6         24.37      0.013799         0.893
       3850.0        3781.4         25.19      0.014053         0.908
       3840.0        3840.2         26.02      0.014309         0.923
       3830.0        3899.0         26.87      0.014567         0.938
       3820.0        3957.8         27.74      0.014825         0.954
       3810.0        4016.7         28.62      0.015086         0.969
       3800.0        4075.7         29.52      0.015348         0.985
       3790.0        4134.6         30.43      0.015611         1.000
       3780.0        4193.6         31.36      0.015876         1.016
       3770.0        4252.6         32.30      0.016142         1.032
       3760.0        4311.6         33.26      0.016409         1.047
       3750.0        4370.6         34.24      0.016679         1.063
       3740.0        4429.6         35.23      0.016950         1.079
       3730.0        4488.7         36.24      0.017223         1.094
       3720.0        4547.8         37.27      0.017497         1.110
       3710.0        4607.0         38.31      0.017773         1.126
       3700.0        4665.9         39.37      0.018049         1.142
       3690.0        4724.9         40.44      0.018327         1.158
       3680.0        4783.9         41.53      0.018607         1.174
       3670.0        4842.8         42.63      0.018888         1.190
       3660.0        4901.8         43.76      0.019171         1.206
       3650.0        4960.9         44.90      0.019455         1.222
       3640.0        5019.9         46.06      0.019741         1.239
       3630.0        5079.1         47.23      0.020029         1.255
       3620.0        5138.2         48.43      0.020319         1.271
       3610.0        5197.4         49.64      0.020610         1.288
       3600.0        5256.6         50.87      0.020903         1.304
       3590.0        5315.9         52.12      0.021198         1.321
       3580.0        5375.2         53.38      0.021495         1.337
       3570.0        5434.5         54.66      0.021794         1.354
       3560.0        5493.8         55.96      0.022094         1.370
       3550.0        5553.0         57.28      0.022395         1.387
       3540.0        5612.2         58.62      0.022699         1.404
       3530.0        5671.4         59.97      0.023005         1.420
       3520.0        5730.7         61.35      0.023312         1.437
       3510.0        5790.0         62.74      0.023622         1.454
       3500.0        5849.3         64.15      0.023932         1.471
       3490.0        5908.7         65.58      0.024245         1.488
       3480.0        5968.1         67.03      0.024559         1.505
       3470.0        6027.6         68.49      0.024875         1.522
       3460.0        6087.0         69.98      0.025194         1.539
       3450.0        6146.4         71.49      0.025514         1.556
       3440.0        6205.8         73.01      0.025835         1.574
       3430.0        6265.4         74.56      0.026160         1.591
       3420.0        6324.8         76.13      0.026486         1.608
       3410.0        6384.2         77.71      0.026814         1.626
       3400.0        6443.6         79.30      0.027143         1.643
       3390.0        6502.9         80.92      0.027474         1.661
       3380.0        6562.3         82.57      0.027808         1.678
       3370.0        6621.7         84.23      0.028144         1.696
       3360.0        6681.2         85.91      0.028482         1.714
       3350.0        6740.7         87.62      0.028822         1.731
       3340.0        6800.2         89.34      0.029164         1.749
       3330.0        6859.8         91.09      0.029509         1.767
       3320.0        6919.4         92.86      0.029855         1.785
       3310.0        6978.9         94.65      0.030204         1.803
       3300.0        7038.2         96.45      0.030554         1.821
       3290.0        7097.8         98.28      0.030906         1.839
       3280.0        7157.4        100.13      0.031260         1.857
       3270.0        7217.0        102.00      0.031617         1.875
       3260.0        7276.6        103.89      0.031977         1.893
       3250.0        7336.0        105.81      0.032338         1.912
       3240.0        7395.4        107.74      0.032702         1.930
       3230.0        7454.8        109.70      0.033068         1.948
       3220.0        7514.2        111.68      0.033437         1.967
       3210.0        7573.6        113.68      0.033808         1.985
       3200.0        7633.1        115.71      0.034181         2.004
       3190.0        7692.6        117.76      0.034557         2.022
       3180.0        7752.2        119.83      0.034935         2.041
       3170.0        7811.9        121.91      0.035314         2.060
       3160.0        7871.6        124.03      0.035696         2.079
       3150.0        7931.1        126.16      0.036081         2.098
       3140.0        7990.6        128.33      0.036470         2.117
       3130.0        8050.2        130.51      0.036859         2.136
       3120.0        8110.0        132.72      0.037252         2.155
       3110.0        8169.5        134.95      0.037647         2.174
       3100.0        8229.0        137.20      0.038044         2.193
       3090.0        8289.2        139.48      0.038445         2.212
       3080.0        8348.7        141.78      0.038848         2.232
       3070.0        8408.1        144.11      0.039254         2.251
       3060.0        8467.7        146.47      0.039663         2.271
       3050.0        8527.3        148.85      0.040074         2.290
       3040.0        8586.9        151.25      0.040487         2.310
       3030.0        8646.6        153.67      0.040903         2.329
       3020.0        8706.4        156.12      0.041323         2.349
       3010.0        8766.0        158.60      0.041744         2.369
       3000.0        8825.2        161.09      0.042168         2.389
       2990.0        8884.7        163.62      0.042595         2.409
       2980.0        8944.3        166.17      0.043025         2.428
       2970.0        9003.9        168.74      0.043459         2.449
       2960.0        9063.6        171.35      0.043895         2.469
       2950.0        9123.2        173.98      0.044335         2.489
       2940.0        9182.6        176.64      0.044778         2.509
       2930.0        9242.0        179.33      0.045225         2.529
       2920.0        9301.5        182.04      0.045672         2.550
       2910.0        9361.1        184.77      0.046123         2.570
       2900.0        9421.2        187.52      0.046577         2.591
       2890.0        9480.7        190.31      0.047034         2.611
       2880.0        9540.2        193.12      0.047494         2.632
       2870.0        9599.9        195.97      0.047958         2.652
       2860.0        9659.5        198.84      0.048426         2.673
       2850.0        9719.2        201.75      0.048897         2.694
       2840.0        9779.0        204.68      0.049372         2.715
       2830.0        9838.6        207.65      0.049850         2.736
       2820.0        9898.1        210.64      0.050327         2.757
       2810.0        9957.5        213.66      0.050815         2.779
       2800.0       10017.4        216.70      0.051303         2.800
       2790.0       10076.7        219.76      0.051788         2.821
       2780.0       10135.9        222.82      0.052280         2.842
       2770.0       10195.2        225.95      0.052777         2.864
       2760.0       10254.6        229.10      0.053278         2.885
       2750.0       10314.0        232.29      0.053782         2.907
       2740.0       10373.5        235.51      0.054291         2.928
       2730.0       10433.1        238.76      0.054804         2.950
       2720.0       10492.8        242.05      0.055322         2.972
       2710.0       10552.5        245.37      0.055844         2.994
       2700.0       10612.3        248.73      0.056370         3.016
       2690.0       10672.2        252.12      0.056901         3.039
       2680.0       10732.9        255.55      0.057436         3.061
       2670.0       10792.9        258.99      0.057974         3.083
       2660.0       10852.5        262.46      0.058514         3.106
       2650.0       10912.0        265.96      0.059058         3.128
       2640.0       10971.5        269.49      0.059605         3.151
       2630.0       11031.0        273.06      0.060157         3.173
       2620.0       11090.6        276.66      0.060714         3.196
       2610.0       11150.1        280.30      0.061275         3.219
       2600.0       11209.7        283.97      0.061840         3.242
       2590.0       11269.4        287.68      0.062411         3.265
       2580.0       11329.1        291.43      0.062986         3.288
       2570.0       11388.9        295.22      0.063567         3.311
       2560.0       11448.8        299.05      0.064153         3.334
       2550.0       11508.8        302.91      0.064743         3.358
       2540.0       11568.8        306.81      0.065339         3.381
       2530.0       11628.7        310.74      0.065939         3.405
       2520.0       11688.7        314.71      0.066544         3.429
       2510.0       11748.6        318.71      0.067154         3.453
       2500.0       11808.6        322.76      0.067769         3.476
       2490.0       11868.4        326.83      0.068388         3.500
       2480.0       11928.3        330.95      0.069012         3.525
       2470.0       11988.2        335.10      0.069642         3.549
       2460.0       12048.3        339.31      0.070278         3.573
       2450.0       12108.3        343.55      0.070919         3.598
       2440.0       12168.4        347.83      0.071566         3.622
       2430.0       12228.5        352.16      0.072219         3.647
       2420.0       12288.7        356.53      0.072877         3.672
       2410.0       12349.0        360.95      0.073542         3.697
       2400.0       12409.3        365.40      0.074213         3.722
       2390.0       12469.7        369.90      0.074890         3.747
       2380.0       12530.1        374.43      0.075573         3.772
       2370.0       12590.5        379.02      0.076262         3.798
       2360.0       12650.7        383.64      0.076957         3.823
       2350.0       12711.2        388.31      0.077659         3.849
       2340.0       12771.7        393.03      0.078367         3.875
       2330.0       12832.3        397.80      0.079081         3.901
       2320.0       12893.0        402.61      0.079802         3.927
       2310.0       12953.7        407.47      0.080530         3.953
       2300.0       13014.5        412.38      0.081263         3.979
       2290.0       13075.1        417.34      0.082005         4.006
       2280.0       13135.7        422.34      0.082755         4.032
       2270.0       13196.4        427.41      0.083512         4.059
       2260.0       13257.3        432.52      0.084277         4.086
       2250.0       13318.2        437.68      0.085047         4.113
       2240.0       13379.3        442.89      0.085826         4.140
       2230.0       13440.5        448.15      0.086613         4.167
       2220.0       13501.8        453.47      0.087408         4.195
       2210.0       13563.0        458.85      0.088210         4.222
       2200.0       13624.4        464.28      0.089021         4.250
       2190.0       13685.8        469.77      0.089841         4.278
       2180.0       13747.3        475.31      0.090668         4.306
       2170.0       13808.9        480.91      0.091504         4.335
       2160.0       13870.6        486.56      0.092349         4.363
       2150.0       13932.4        492.28      0.093203         4.392
       2140.0       13994.3        498.06      0.094066         4.420
       2130.0       14056.3        503.90      0.094939         4.449
       2120.0       14117.0        509.80      0.095821         4.478
       2110.0       14178.8        515.76      0.096712         4.508
       2100.0       14240.7        521.79      0.097613         4.537
       2090.0       14303.8        527.88      0.098523         4.567
       2080.0       14365.8        534.04      0.099444         4.597
       2070.0       14427.9        540.27      0.100376         4.627
       2060.0       14490.2        546.56      0.101318         4.657
       2050.0       14552.6        552.92      0.102270         4.687
       2040.0       14615.2        559.35      0.103233         4.718
       2030.0       14678.1        565.86      0.104207         4.749
       2020.0       14741.0        572.44      0.105193         4.780
       2010.0       14804.1        579.08      0.106190         4.811
       2000.0       14867.3        585.81      0.107199         4.842
       1990.0       14930.6        592.61      0.108219         4.874
       1980.0       14994.0        599.49      0.109252         4.906
       1970.0       15057.5        606.45      0.110298         4.938
       1960.0       15120.9        613.49      0.111357         4.970
       1950.0       15184.5        620.61      0.112429         5.003
       1940.0       15248.2        627.82      0.113514         5.036
       1930.0       15311.9        635.12      0.114613         5.069
       1920.0       15375.7        642.50      0.115726         5.102
       1910.0       15439.7        649.96      0.116853         5.136
       1900.0       15503.9        657.52      0.117994         5.169
       1890.0       15568.5        665.17      0.119150         5.203
       1880.0       15633.3        672.91      0.120321         5.238
       1870.0       15698.2        680.74      0.121507         5.272
       1860.0       15763.3        688.68      0.122710         5.307
       1850.0       15828.3        696.72      0.123928         5.342
       1840.0       15893.4        704.85      0.125163         5.378
       1830.0       15958.8        713.09      0.126415         5.413
       1820.0       16024.4        721.44      0.127684         5.449
       1810.0       16090.1        729.90      0.128972         5.486
       1800.0       16156.1        738.46      0.130277         5.522
       1790.0       16222.4        747.13      0.131599         5.559
       1780.0       16288.9        755.92      0.132941         5.596
       1770.0       16355.6        764.83      0.134302         5.634
       1760.0       16422.4        773.85      0.135683         5.672
       1750.0       16489.4        782.99      0.137083         5.710
       1740.0       16556.6        792.26      0.138504         5.749
       1730.0       16623.9        801.65      0.139946         5.787
       1720.0       16691.6        811.17      0.141409         5.827
       1710.0       16759.6        820.82      0.142894         5.866
       1700.0       16827.8        830.60      0.144401         5.906
       1690.0       16896.2        840.51      0.145931         5.946
       1680.0       16964.8        850.58      0.147486         5.987
       1670.0       17033.7        860.78      0.149065         6.028
