            V          S(V)          A(V)          I(V)          T(V)
          441
       4500.0           0.0          0.00      0.000000         0.000
       4490.0          55.4          0.00      0.000176         0.012
       4480.0         110.8          0.02      0.000354         0.025
       4470.0         166.3          0.04      0.000532         0.037
       4460.0         221.8          0.08      0.000711         0.050
       4450.0         277.3          0.12      0.000891         0.062
       4440.0         332.8          0.18      0.001072         0.074
       4430.0         388.4          0.24      0.001254         0.087
       4420.0         444.0          0.32      0.001436         0.100
       4410.0         499.6          0.40      0.001620         0.112
       4400.0         555.2          0.50      0.001804         0.125
       4390.0         610.9          0.60      0.001990         0.137
       4380.0         666.6          0.72      0.002176         0.150
       4370.0         722.3          0.85      0.002363         0.163
       4360.0         778.0          0.98      0.002552         0.176
       4350.0         833.7          1.13      0.002741         0.188
       4340.0         889.5          1.29      0.002931         0.201
       4330.0         945.3          1.46      0.003122         0.214
       4320.0        1001.2          1.64      0.003314         0.227
       4310.0        1057.0          1.83      0.003507         0.240
       4300.0        1112.9          2.03      0.003701         0.253
       4290.0        1168.8          2.24      0.003896         0.266
       4280.0        1224.7          2.46      0.004092         0.279
       4270.0        1280.6          2.70      0.004289         0.292
       4260.0        1336.6          2.94      0.004487         0.305
       4250.0        1392.6          3.20      0.004686         0.318
       4240.0        1448.6          3.47      0.004886         0.332
       4230.0        1504.7          3.75      0.005087         0.345
       4220.0        1560.7          4.04      0.005289         0.358
       4210.0        1616.9          4.34      0.005493         0.371
       4200.0        1673.0          4.66      0.005697         0.385
       4190.0        1729.1          4.98      0.005902         0.398
       4180.0        1785.3          5.32      0.006109         0.412
       4170.0        1841.5          5.67      0.006316         0.425
       4160.0        1897.8          6.03      0.006525         0.439
       4150.0        1954.1          6.40      0.006735         0.452
       4140.0        2010.4          6.79      0.006945         0.466
       4130.0        2066.7          7.18      0.007157         0.479
       4120.0        2123.0          7.59      0.007370         0.493
       4110.0        2179.4          8.02      0.007585         0.507
       4100.0        2235.8          8.45      0.007800         0.520
       4090.0        2292.2          8.90      0.008017         0.534
       4080.0        2348.7          9.35      0.008234         0.548
       4070.0        2405.2          9.83      0.008453         0.562
       4060.0        2461.7         10.31      0.008673         0.576
       4050.0        2518.3         10.81      0.008895         0.590
       4040.0        2574.9         11.32      0.009117         0.604
       4030.0        2631.5         11.84      0.009341         0.618
       4020.0        2688.1         12.37      0.009566         0.632
       4010.0        2744.8         12.92      0.009792         0.646
       4000.0        2801.5         13.48      0.010019         0.660
       3990.0        2858.2         14.06      0.010248         0.674
       3980.0        2914.9         14.65      0.010478         0.689
       3970.0        2971.7         15.25      0.010709         0.703
       3960.0        3028.5         15.86      0.010942         0.717
       3950.0        3085.3         16.49      0.011176         0.731
       3940.0        3142.2         17.13      0.011411         0.746
       3930.0        3199.1         17.79      0.011647         0.760
       3920.0        3256.0         18.46      0.011885         0.775
       3910.0        3313.0         19.14      0.012124         0.789
       3900.0        3369.9         19.84      0.012364         0.804
       3890.0        3426.9         20.55      0.012606         0.819
       3880.0        3483.9         21.28      0.012849         0.833
       3870.0        3541.0         22.02      0.013094         0.848
       3860.0        3598.1         22.77      0.013340         0.863
       3850.0        3655.1         23.54      0.013587         0.878
       3840.0        3712.3         24.32      0.013835         0.892
       3830.0        3769.4         25.12      0.014085         0.907
       3820.0        3826.6         25.93      0.014337         0.922
       3810.0        3883.8         26.76      0.014590         0.937
       3800.0        3941.1         27.61      0.014844         0.952
       3790.0        3998.4         28.46      0.015100         0.967
       3780.0        4055.7         29.34      0.015358         0.983
       3770.0        4113.0         30.22      0.015617         0.998
       3760.0        4170.4         31.13      0.015877         1.013
       3750.0        4227.9         32.05      0.016139         1.028
       3740.0        4285.3         32.98      0.016403         1.044
       3730.0        4342.8         33.93      0.016668         1.059
       3720.0        4400.4         34.90      0.016935         1.075
       3710.0        4457.9         35.88      0.017204         1.090
       3700.0        4515.4         36.88      0.017473         1.106
       3690.0        4573.0         37.89      0.017744         1.121
       3680.0        4630.5         38.92      0.018017         1.137
       3670.0        4688.1         39.97      0.018292         1.152
       3660.0        4745.8         41.03      0.018568         1.168
       3650.0        4803.5         42.11      0.018846         1.184
       3640.0        4861.2         43.21      0.019126         1.200
       3630.0        4919.1         44.32      0.019407         1.216
       3620.0        4977.0         45.45      0.019691         1.232
       3610.0        5034.9         46.60      0.019976         1.248
       3600.0        5092.8         47.77      0.020263         1.264
       3590.0        5150.8         48.95      0.020551         1.280
       3580.0        5208.9         50.15      0.020842         1.296
       3570.0        5267.0         51.37      0.021135         1.312
       3560.0        5325.1         52.61      0.021429         1.329
       3550.0        5383.2         53.86      0.021725         1.345
       3540.0        5441.4         55.13      0.022022         1.361
       3530.0        5499.5         56.42      0.022322         1.378
       3520.0        5557.7         57.73      0.022623         1.394
       3510.0        5615.9         59.05      0.022926         1.411
       3500.0        5674.2         60.40      0.023231         1.428
       3490.0        5732.5         61.76      0.023539         1.444
       3480.0        5790.8         63.15      0.023848         1.461
       3470.0        5849.3         64.55      0.024159         1.478
       3460.0        5907.7         65.97      0.024473         1.495
       3450.0        5966.2         67.41      0.024788         1.512
       3440.0        6024.8         68.87      0.025106         1.529
       3430.0        6083.4         70.35      0.025425         1.546
       3420.0        6142.1         71.86      0.025747         1.563
       3410.0        6200.9         73.38      0.026071         1.580
       3400.0        6259.7         74.92      0.026398         1.597
       3390.0        6318.5         76.48      0.026726         1.615
       3380.0        6377.4         78.07      0.027057         1.632
       3370.0        6436.3         79.67      0.027390         1.649
       3360.0        6495.3         81.29      0.027725         1.667
       3350.0        6554.3         82.94      0.028062         1.685
       3340.0        6613.5         84.61      0.028402         1.702
       3330.0        6672.6         86.30      0.028745         1.720
       3320.0        6731.9         88.01      0.029089         1.738
       3310.0        6791.1         89.75      0.029437         1.756
       3300.0        6850.4         91.51      0.029786         1.774
       3290.0        6909.8         93.28      0.030138         1.792
       3280.0        6969.2         95.08      0.030492         1.810
       3270.0        7028.7         96.91      0.030849         1.828
       3260.0        7088.2         98.76      0.031208         1.846
       3250.0        7147.8        100.63      0.031570         1.864
       3240.0        7207.5        102.53      0.031935         1.883
       3230.0        7267.3        104.45      0.032303         1.901
       3220.0        7327.1        106.39      0.032673         1.920
       3210.0        7387.0        108.36      0.033046         1.938
       3200.0        7447.0        110.35      0.033421         1.957
       3190.0        7507.0        112.37      0.033800         1.976
       3180.0        7567.1        114.41      0.034181         1.995
       3170.0        7627.3        116.48      0.034565         2.014
       3160.0        7687.6        118.57      0.034953         2.033
       3150.0        7748.0        120.69      0.035343         2.052
       3140.0        7808.4        122.84      0.035736         2.071
       3130.0        7868.9        125.01      0.036133         2.091
       3120.0        7929.5        127.21      0.036531         2.110
       3110.0        7990.1        129.44      0.036933         2.129
       3100.0        8050.7        131.70      0.037338         2.149
       3090.0        8111.4        133.98      0.037746         2.168
       3080.0        8172.2        136.29      0.038157         2.188
       3070.0        8233.1        138.63      0.038572         2.208
       3060.0        8294.1        140.99      0.038991         2.228
       3050.0        8355.2        143.39      0.039412         2.248
       3040.0        8416.4        145.82      0.039837         2.268
       3030.0        8477.8        148.27      0.040266         2.288
       3020.0        8539.2        150.76      0.040697         2.309
       3010.0        8600.7        153.27      0.041132         2.329
       3000.0        8662.3        155.81      0.041570         2.349
       2990.0        8723.9        158.39      0.042012         2.370
       2980.0        8785.7        160.99      0.042459         2.391
       2970.0        8847.6        163.63      0.042908         2.411
       2960.0        8909.6        166.30      0.043362         2.432
       2950.0        8971.6        169.01      0.043819         2.453
       2940.0        9033.8        171.74      0.044281         2.475
       2930.0        9096.1        174.51      0.044746         2.496
       2920.0        9158.4        177.31      0.045211         2.517
       2910.0        9220.7        180.15      0.045684         2.538
       2900.0        9283.1        183.02      0.046160         2.560
       2890.0        9345.6        185.92      0.046641         2.581
       2880.0        9408.2        188.86      0.047126         2.603
       2870.0        9470.9        191.84      0.047614         2.625
       2860.0        9533.8        194.85      0.048107         2.647
       2850.0        9596.8        197.89      0.048605         2.669
       2840.0        9659.9        200.98      0.049106         2.691
       2830.0        9723.0        204.10      0.049612         2.713
       2820.0        9786.3        207.25      0.050122         2.736
       2810.0        9849.7        210.45      0.050637         2.758
       2800.0        9913.3        213.68      0.051157         2.781
       2790.0        9976.9        216.95      0.051681         2.804
       2780.0       10040.7        220.26      0.052210         2.827
       2770.0       10104.6        223.61      0.052744         2.850
       2760.0       10168.5        227.01      0.053282         2.873
       2750.0       10232.6        230.44      0.053826         2.896
       2740.0       10297.2        233.92      0.054375         2.920
       2730.0       10361.7        237.43      0.054928         2.943
       2720.0       10426.3        240.99      0.055487         2.967
       2710.0       10491.0        244.60      0.056051         2.991
       2700.0       10555.9        248.24      0.056620         3.014
       2690.0       10620.8        251.93      0.057195         3.039
       2680.0       10686.0        255.67      0.057775         3.063
       2670.0       10750.1        259.45      0.058360         3.087
       2660.0       10815.3        263.27      0.058951         3.112
       2650.0       10880.7        267.14      0.059548         3.136
       2640.0       10946.2        271.06      0.060150         3.161
       2630.0       11011.9        275.03      0.060758         3.186
       2620.0       11077.6        279.04      0.061372         3.211
       2610.0       11143.5        283.10      0.061992         3.236
       2600.0       11209.1        287.22      0.062618         3.261
       2590.0       11275.3        291.38      0.063250         3.287
       2580.0       11341.6        295.59      0.063888         3.313
       2570.0       11408.1        299.86      0.064533         3.338
       2560.0       11474.9        304.18      0.065184         3.364
       2550.0       11541.6        308.55      0.065842         3.390
       2540.0       11608.4        312.97      0.066506         3.417
       2530.0       11675.4        317.45      0.067176         3.443
       2520.0       11742.6        321.98      0.067854         3.470
       2510.0       11809.9        326.57      0.068539         3.496
       2500.0       11877.3        331.22      0.069230         3.523
       2490.0       11944.8        335.91      0.069928         3.550
       2480.0       12012.4        340.67      0.070633         3.578
       2470.0       12080.2        345.49      0.071346         3.605
       2460.0       12148.2        350.37      0.072066         3.633
       2450.0       12216.4        355.31      0.072795         3.660
       2440.0       12284.8        360.31      0.073530         3.688
       2430.0       12353.3        365.37      0.074274         3.717
       2420.0       12422.0        370.50      0.075026         3.745
       2410.0       12490.9        375.69      0.075786         3.773
       2400.0       12559.9        380.94      0.076554         3.802
       2390.0       12629.1        386.26      0.077330         3.831
       2380.0       12698.4        391.65      0.078114         3.860
       2370.0       12767.9        397.10      0.078906         3.889
       2360.0       12837.7        402.63      0.079706         3.919
       2350.0       12907.6        408.22      0.080517         3.948
       2340.0       12977.6        413.89      0.081336         3.978
       2330.0       13047.8        419.63      0.082164         4.008
       2320.0       13118.2        425.43      0.083001         4.038
       2310.0       13188.7        431.32      0.083848         4.069
       2300.0       13259.0        437.27      0.084704         4.100
       2290.0       13329.9        443.30      0.085570         4.131
       2280.0       13401.1        449.41      0.086445         4.162
       2270.0       13472.4        455.60      0.087331         4.193
       2260.0       13543.9        461.88      0.088227         4.225
       2250.0       13615.5        468.23      0.089133         4.256
       2240.0       13687.3        474.66      0.090050         4.288
       2230.0       13759.2        481.18      0.090978         4.320
       2220.0       13831.3        487.79      0.091917         4.353
       2210.0       13903.6        494.48      0.092867         4.386
       2200.0       13976.1        501.26      0.093828         4.418
       2190.0       14048.9        508.13      0.094801         4.452
       2180.0       14121.9        515.09      0.095786         4.485
       2170.0       14195.1        522.14      0.096781         4.519
       2160.0       14268.5        529.28      0.097789         4.553
       2150.0       14342.2        536.51      0.098809         4.587
       2140.0       14416.1        543.84      0.099841         4.621
       2130.0       14490.2        551.27      0.100886         4.656
       2120.0       14564.5        558.80      0.101943         4.691
       2110.0       14639.0        566.42      0.103014         4.726
       2100.0       14713.7        574.15      0.104098         4.762
       2090.0       14788.6        581.97      0.105194         4.797
       2080.0       14863.7        589.90      0.106308         4.833
       2070.0       14938.9        597.97      0.107432         4.870
       2060.0       15013.8        606.12      0.108571         4.906
       2050.0       15089.5        614.37      0.109723         4.943
       2040.0       15165.4        622.73      0.110889         4.980
       2030.0       15241.4        631.21      0.112071         5.017
       2020.0       15317.7        639.81      0.113269         5.055
       2010.0       15394.2        648.51      0.114479         5.093
       2000.0       15470.8        657.32      0.115705         5.131
       1990.0       15547.6        666.25      0.116946         5.170
       1980.0       15624.6        675.31      0.118204         5.208
       1970.0       15701.8        684.48      0.119480         5.247
       1960.0       15779.3        693.78      0.120772         5.287
       1950.0       15854.2        703.22      0.122077         5.327
       1940.0       15932.0        712.76      0.123399         5.367
       1930.0       16010.1        722.43      0.124739         5.407
       1920.0       16088.5        732.25      0.126098         5.448
       1910.0       16169.5        742.20      0.127474         5.488
       1900.0       16248.1        752.28      0.128868         5.530
       1890.0       16326.5        762.47      0.130278         5.571
       1880.0       16405.4        772.81      0.131711         5.613
       1870.0       16484.5        783.29      0.133161         5.655
       1860.0       16564.0        793.94      0.134627         5.698
       1850.0       16643.8        804.70      0.136114         5.741
       1840.0       16723.7        815.61      0.137621         5.784
       1830.0       16803.6        826.67      0.139148         5.828
       1820.0       16883.8        837.89      0.140698         5.872
       1810.0       16964.3        849.27      0.142268         5.916
       1800.0       17045.1        860.79      0.143859         5.962
       1790.0       17126.2        872.49      0.145475         6.007
       1780.0       17206.4        884.34      0.147110         6.052
       1770.0       17287.6        896.34      0.148767         6.098
       1760.0       17369.1        908.53      0.150450         6.144
       1750.0       17450.7        920.88      0.152155         6.191
       1740.0       17532.4        933.38      0.153881         6.238
       1730.0       17614.4        946.07      0.155634         6.285
       1720.0       17696.6        958.94      0.157412         6.333
       1710.0       17779.1        972.00      0.159217         6.381
       1700.0       17861.9        985.25      0.161049         6.429
       1690.0       17944.7        998.66      0.162904         6.477
       1680.0       18027.5       1012.24      0.164782         6.526
       1670.0       18110.5       1026.01      0.166687         6.575
